# Temperature [K], Thermal Conductivity (xx, xy, xz, yx, yy, yz, zx, zy, zz) [W/mK]
     20.00     14165.1309         0.0023         0.0023         0.0023     14165.1309         0.0023         0.0023         0.0023     14165.1309
     25.00      8720.1237         0.0013         0.0013         0.0013      8720.1237         0.0013         0.0013         0.0013      8720.1237
     30.00      5801.8713         0.0008         0.0008         0.0008      5801.8713         0.0008         0.0008         0.0008      5801.8713
     35.00      3958.1077         0.0005         0.0005         0.0005      3958.1077         0.0005         0.0005         0.0005      3958.1077
     40.00      2750.8588         0.0004         0.0004         0.0004      2750.8588         0.0004         0.0004         0.0004      2750.8588
     45.00      1967.2040         0.0003         0.0003         0.0003      1967.2040         0.0003         0.0003         0.0003      1967.2040
     50.00      1456.2525         0.0002         0.0002         0.0002      1456.2525         0.0002         0.0002         0.0002      1456.2525
     55.00      1115.8662         0.0002         0.0002         0.0002      1115.8662         0.0002         0.0002         0.0002      1115.8662
     60.00       882.3754         0.0001         0.0001         0.0001       882.3754         0.0001         0.0001         0.0001       882.3754
     65.00       717.2312         0.0001         0.0001         0.0001       717.2312         0.0001         0.0001         0.0001       717.2312
     70.00       596.9785         0.0001         0.0001         0.0001       596.9785         0.0001         0.0001         0.0001       596.9785
     75.00       507.0550         0.0001         0.0001         0.0001       507.0550         0.0001         0.0001         0.0001       507.0550
     80.00       438.1856         0.0001         0.0001         0.0001       438.1856         0.0001         0.0001         0.0001       438.1856
     85.00       384.3038         0.0001         0.0001         0.0001       384.3038         0.0001         0.0001         0.0001       384.3038
     90.00       341.3393         0.0001         0.0001         0.0001       341.3393         0.0001         0.0001         0.0001       341.3393
     95.00       306.4945         0.0000         0.0000         0.0000       306.4945         0.0000         0.0000         0.0000       306.4945
    100.00       277.8041         0.0000         0.0000         0.0000       277.8041         0.0000         0.0000         0.0000       277.8041
    105.00       253.8589         0.0000         0.0000         0.0000       253.8589         0.0000         0.0000         0.0000       253.8589
    110.00       233.6297         0.0000         0.0000         0.0000       233.6297         0.0000         0.0000         0.0000       233.6297
    115.00       216.3522         0.0000         0.0000         0.0000       216.3522         0.0000         0.0000         0.0000       216.3522
    120.00       201.4494         0.0000         0.0000         0.0000       201.4494         0.0000         0.0000         0.0000       201.4494
    125.00       188.4799         0.0000         0.0000         0.0000       188.4799         0.0000         0.0000         0.0000       188.4799
    130.00       177.1015         0.0000         0.0000         0.0000       177.1015         0.0000         0.0000         0.0000       177.1015
    135.00       167.0455         0.0000         0.0000         0.0000       167.0455         0.0000         0.0000         0.0000       167.0455
    140.00       158.0986         0.0000         0.0000         0.0000       158.0986         0.0000         0.0000         0.0000       158.0986
    145.00       150.0900         0.0000         0.0000         0.0000       150.0900         0.0000         0.0000         0.0000       150.0900
    150.00       142.8810         0.0000         0.0000         0.0000       142.8810         0.0000         0.0000         0.0000       142.8810
    155.00       136.3586         0.0000         0.0000         0.0000       136.3586         0.0000         0.0000         0.0000       136.3586
    160.00       130.4297         0.0000         0.0000         0.0000       130.4297         0.0000         0.0000         0.0000       130.4297
    165.00       125.0169         0.0000         0.0000         0.0000       125.0169         0.0000         0.0000         0.0000       125.0169
    170.00       120.0555         0.0000         0.0000         0.0000       120.0555         0.0000         0.0000         0.0000       120.0555
    175.00       115.4911         0.0000         0.0000         0.0000       115.4911         0.0000         0.0000         0.0000       115.4911
    180.00       111.2776         0.0000         0.0000         0.0000       111.2776         0.0000         0.0000         0.0000       111.2776
    185.00       107.3756         0.0000         0.0000         0.0000       107.3756         0.0000         0.0000         0.0000       107.3756
    190.00       103.7514         0.0000         0.0000         0.0000       103.7514         0.0000         0.0000         0.0000       103.7514
    195.00       100.3760         0.0000         0.0000         0.0000       100.3760         0.0000         0.0000         0.0000       100.3760
    200.00        97.2243         0.0000         0.0000         0.0000        97.2243         0.0000         0.0000         0.0000        97.2243
    205.00        94.2744         0.0000         0.0000         0.0000        94.2744         0.0000         0.0000         0.0000        94.2744
    210.00        91.5071         0.0000         0.0000         0.0000        91.5071         0.0000         0.0000         0.0000        91.5071
    215.00        88.9057         0.0000         0.0000         0.0000        88.9057         0.0000         0.0000         0.0000        88.9057
    220.00        86.4554         0.0000         0.0000         0.0000        86.4554         0.0000         0.0000         0.0000        86.4554
    225.00        84.1432         0.0000         0.0000         0.0000        84.1432         0.0000         0.0000         0.0000        84.1432
    230.00        81.9574         0.0000         0.0000         0.0000        81.9574         0.0000         0.0000         0.0000        81.9574
    235.00        79.8878         0.0000         0.0000         0.0000        79.8878         0.0000         0.0000         0.0000        79.8878
    240.00        77.9251         0.0000         0.0000         0.0000        77.9251         0.0000         0.0000         0.0000        77.9251
    245.00        76.0610         0.0000         0.0000         0.0000        76.0610         0.0000         0.0000         0.0000        76.0610
    250.00        74.2881         0.0000         0.0000         0.0000        74.2881         0.0000         0.0000         0.0000        74.2881
    255.00        72.5997         0.0000         0.0000         0.0000        72.5997         0.0000         0.0000         0.0000        72.5997
    260.00        70.9897         0.0000         0.0000         0.0000        70.9897         0.0000         0.0000         0.0000        70.9897
    265.00        69.4528         0.0000         0.0000         0.0000        69.4528         0.0000         0.0000         0.0000        69.4528
    270.00        67.9838         0.0000         0.0000         0.0000        67.9838         0.0000         0.0000         0.0000        67.9838
    275.00        66.5784         0.0000         0.0000         0.0000        66.5784         0.0000         0.0000         0.0000        66.5784
    280.00        65.2323         0.0000         0.0000         0.0000        65.2323         0.0000         0.0000         0.0000        65.2323
    285.00        63.9417         0.0000         0.0000         0.0000        63.9417         0.0000         0.0000         0.0000        63.9417
    290.00        62.7033         0.0000         0.0000         0.0000        62.7033         0.0000         0.0000         0.0000        62.7033
    295.00        61.5138         0.0000         0.0000         0.0000        61.5138         0.0000         0.0000         0.0000        61.5138
    300.00        60.3704         0.0000         0.0000         0.0000        60.3704         0.0000         0.0000         0.0000        60.3704
    305.00        59.2703         0.0000         0.0000         0.0000        59.2703         0.0000         0.0000         0.0000        59.2703
    310.00        58.2110         0.0000         0.0000         0.0000        58.2110         0.0000         0.0000         0.0000        58.2110
    315.00        57.1904         0.0000         0.0000         0.0000        57.1904         0.0000         0.0000         0.0000        57.1904
    320.00        56.2061         0.0000         0.0000         0.0000        56.2061         0.0000         0.0000         0.0000        56.2061
    325.00        55.2564         0.0000         0.0000         0.0000        55.2564         0.0000         0.0000         0.0000        55.2564
    330.00        54.3393         0.0000         0.0000         0.0000        54.3393         0.0000         0.0000         0.0000        54.3393
    335.00        53.4532         0.0000         0.0000         0.0000        53.4532         0.0000         0.0000         0.0000        53.4532
    340.00        52.5964         0.0000         0.0000         0.0000        52.5964         0.0000         0.0000         0.0000        52.5964
    345.00        51.7676         0.0000         0.0000         0.0000        51.7676         0.0000         0.0000         0.0000        51.7676
    350.00        50.9653         0.0000         0.0000         0.0000        50.9653         0.0000         0.0000         0.0000        50.9653
    355.00        50.1883         0.0000         0.0000         0.0000        50.1883         0.0000         0.0000         0.0000        50.1883
    360.00        49.4354         0.0000         0.0000         0.0000        49.4354         0.0000         0.0000         0.0000        49.4354
    365.00        48.7053         0.0000         0.0000         0.0000        48.7053         0.0000         0.0000         0.0000        48.7053
    370.00        47.9972         0.0000         0.0000         0.0000        47.9972         0.0000         0.0000         0.0000        47.9972
    375.00        47.3099         0.0000         0.0000         0.0000        47.3099         0.0000         0.0000         0.0000        47.3099
    380.00        46.6426         0.0000         0.0000         0.0000        46.6426         0.0000         0.0000         0.0000        46.6426
    385.00        45.9943         0.0000         0.0000         0.0000        45.9943         0.0000         0.0000         0.0000        45.9943
    390.00        45.3643         0.0000         0.0000         0.0000        45.3643         0.0000         0.0000         0.0000        45.3643
    395.00        44.7518         0.0000         0.0000         0.0000        44.7518         0.0000         0.0000         0.0000        44.7518
    400.00        44.1561         0.0000         0.0000         0.0000        44.1561         0.0000         0.0000         0.0000        44.1561
    405.00        43.5764         0.0000         0.0000         0.0000        43.5764         0.0000         0.0000         0.0000        43.5764
    410.00        43.0121         0.0000         0.0000         0.0000        43.0121         0.0000         0.0000         0.0000        43.0121
    415.00        42.4626         0.0000         0.0000         0.0000        42.4626         0.0000         0.0000         0.0000        42.4626
    420.00        41.9273         0.0000         0.0000         0.0000        41.9273         0.0000         0.0000         0.0000        41.9273
    425.00        41.4056         0.0000         0.0000         0.0000        41.4056         0.0000         0.0000         0.0000        41.4056
    430.00        40.8971         0.0000         0.0000         0.0000        40.8971         0.0000         0.0000         0.0000        40.8971
    435.00        40.4012         0.0000         0.0000         0.0000        40.4012         0.0000         0.0000         0.0000        40.4012
    440.00        39.9174         0.0000         0.0000         0.0000        39.9174         0.0000         0.0000         0.0000        39.9174
    445.00        39.4453         0.0000         0.0000         0.0000        39.4453         0.0000         0.0000         0.0000        39.4453
    450.00        38.9845         0.0000         0.0000         0.0000        38.9845         0.0000         0.0000         0.0000        38.9845
    455.00        38.5346         0.0000         0.0000         0.0000        38.5346         0.0000         0.0000         0.0000        38.5346
    460.00        38.0952         0.0000         0.0000         0.0000        38.0952         0.0000         0.0000         0.0000        38.0952
    465.00        37.6658         0.0000         0.0000         0.0000        37.6658         0.0000         0.0000         0.0000        37.6658
    470.00        37.2463         0.0000         0.0000         0.0000        37.2463         0.0000         0.0000         0.0000        37.2463
    475.00        36.8361         0.0000         0.0000         0.0000        36.8361         0.0000         0.0000         0.0000        36.8361
    480.00        36.4351         0.0000         0.0000         0.0000        36.4351         0.0000         0.0000         0.0000        36.4351
    485.00        36.0429         0.0000         0.0000         0.0000        36.0429         0.0000         0.0000         0.0000        36.0429
    490.00        35.6592         0.0000         0.0000         0.0000        35.6592         0.0000         0.0000         0.0000        35.6592
    495.00        35.2837         0.0000         0.0000         0.0000        35.2837         0.0000         0.0000         0.0000        35.2837
    500.00        34.9162         0.0000         0.0000         0.0000        34.9162         0.0000         0.0000         0.0000        34.9162
    505.00        34.5564         0.0000         0.0000         0.0000        34.5564         0.0000         0.0000         0.0000        34.5564
    510.00        34.2040         0.0000         0.0000         0.0000        34.2040         0.0000         0.0000         0.0000        34.2040
    515.00        33.8589         0.0000         0.0000         0.0000        33.8589         0.0000         0.0000         0.0000        33.8589
    520.00        33.5208         0.0000         0.0000         0.0000        33.5208         0.0000         0.0000         0.0000        33.5208
    525.00        33.1895         0.0000         0.0000         0.0000        33.1895         0.0000         0.0000         0.0000        33.1895
    530.00        32.8648         0.0000         0.0000         0.0000        32.8648         0.0000         0.0000         0.0000        32.8648
    535.00        32.5465         0.0000         0.0000         0.0000        32.5465         0.0000         0.0000         0.0000        32.5465
    540.00        32.2344         0.0000         0.0000         0.0000        32.2344         0.0000         0.0000         0.0000        32.2344
    545.00        31.9283         0.0000         0.0000         0.0000        31.9283         0.0000         0.0000         0.0000        31.9283
    550.00        31.6281         0.0000         0.0000         0.0000        31.6281         0.0000         0.0000         0.0000        31.6281
    555.00        31.3335         0.0000         0.0000         0.0000        31.3335         0.0000         0.0000         0.0000        31.3335
    560.00        31.0445         0.0000         0.0000         0.0000        31.0445         0.0000         0.0000         0.0000        31.0445
    565.00        30.7608         0.0000         0.0000         0.0000        30.7608         0.0000         0.0000         0.0000        30.7608
    570.00        30.4824         0.0000         0.0000         0.0000        30.4824         0.0000         0.0000         0.0000        30.4824
    575.00        30.2090         0.0000         0.0000         0.0000        30.2090         0.0000         0.0000         0.0000        30.2090
    580.00        29.9405         0.0000         0.0000         0.0000        29.9405         0.0000         0.0000         0.0000        29.9405
    585.00        29.6768         0.0000         0.0000         0.0000        29.6768         0.0000         0.0000         0.0000        29.6768
    590.00        29.4178         0.0000         0.0000         0.0000        29.4178         0.0000         0.0000         0.0000        29.4178
    595.00        29.1633         0.0000         0.0000         0.0000        29.1633         0.0000         0.0000         0.0000        29.1633
    600.00        28.9133         0.0000         0.0000         0.0000        28.9133         0.0000         0.0000         0.0000        28.9133
    605.00        28.6675         0.0000         0.0000         0.0000        28.6675         0.0000         0.0000         0.0000        28.6675
    610.00        28.4260         0.0000         0.0000         0.0000        28.4260         0.0000         0.0000         0.0000        28.4260
    615.00        28.1885         0.0000         0.0000         0.0000        28.1885         0.0000         0.0000         0.0000        28.1885
    620.00        27.9551         0.0000         0.0000         0.0000        27.9551         0.0000         0.0000         0.0000        27.9551
    625.00        27.7255         0.0000         0.0000         0.0000        27.7255         0.0000         0.0000         0.0000        27.7255
    630.00        27.4997         0.0000         0.0000         0.0000        27.4997         0.0000         0.0000         0.0000        27.4997
    635.00        27.2775         0.0000         0.0000         0.0000        27.2775         0.0000         0.0000         0.0000        27.2775
    640.00        27.0590         0.0000         0.0000         0.0000        27.0590         0.0000         0.0000         0.0000        27.0590
    645.00        26.8440         0.0000         0.0000         0.0000        26.8440         0.0000         0.0000         0.0000        26.8440
    650.00        26.6324         0.0000         0.0000         0.0000        26.6324         0.0000         0.0000         0.0000        26.6324
    655.00        26.4242         0.0000         0.0000         0.0000        26.4242         0.0000         0.0000         0.0000        26.4242
    660.00        26.2193         0.0000         0.0000         0.0000        26.2193         0.0000         0.0000         0.0000        26.2193
    665.00        26.0175         0.0000         0.0000         0.0000        26.0175         0.0000         0.0000         0.0000        26.0175
    670.00        25.8188         0.0000         0.0000         0.0000        25.8188         0.0000         0.0000         0.0000        25.8188
    675.00        25.6232         0.0000         0.0000         0.0000        25.6232         0.0000         0.0000         0.0000        25.6232
    680.00        25.4306         0.0000         0.0000         0.0000        25.4306         0.0000         0.0000         0.0000        25.4306
    685.00        25.2408         0.0000         0.0000         0.0000        25.2408         0.0000         0.0000         0.0000        25.2408
    690.00        25.0539         0.0000         0.0000         0.0000        25.0539         0.0000         0.0000         0.0000        25.0539
    695.00        24.8698         0.0000         0.0000         0.0000        24.8698         0.0000         0.0000         0.0000        24.8698
    700.00        24.6884         0.0000         0.0000         0.0000        24.6884         0.0000         0.0000         0.0000        24.6884
    705.00        24.5096         0.0000         0.0000         0.0000        24.5096         0.0000         0.0000         0.0000        24.5096
    710.00        24.3335         0.0000         0.0000         0.0000        24.3335         0.0000         0.0000         0.0000        24.3335
    715.00        24.1599         0.0000         0.0000         0.0000        24.1599         0.0000         0.0000         0.0000        24.1599
    720.00        23.9887         0.0000         0.0000         0.0000        23.9887         0.0000         0.0000         0.0000        23.9887
    725.00        23.8200         0.0000         0.0000         0.0000        23.8200         0.0000         0.0000         0.0000        23.8200
    730.00        23.6537         0.0000         0.0000         0.0000        23.6537         0.0000         0.0000         0.0000        23.6537
    735.00        23.4897         0.0000         0.0000         0.0000        23.4897         0.0000         0.0000         0.0000        23.4897
    740.00        23.3279         0.0000         0.0000         0.0000        23.3279         0.0000         0.0000         0.0000        23.3279
    745.00        23.1684         0.0000         0.0000         0.0000        23.1684         0.0000         0.0000         0.0000        23.1684
    750.00        23.0111         0.0000         0.0000         0.0000        23.0111         0.0000         0.0000         0.0000        23.0111
    755.00        22.8560         0.0000         0.0000         0.0000        22.8560         0.0000         0.0000         0.0000        22.8560
    760.00        22.7029         0.0000         0.0000         0.0000        22.7029         0.0000         0.0000         0.0000        22.7029
    765.00        22.5519         0.0000         0.0000         0.0000        22.5519         0.0000         0.0000         0.0000        22.5519
    770.00        22.4029         0.0000         0.0000         0.0000        22.4029         0.0000         0.0000         0.0000        22.4029
    775.00        22.2558         0.0000         0.0000         0.0000        22.2558         0.0000         0.0000         0.0000        22.2558
    780.00        22.1107         0.0000         0.0000         0.0000        22.1107         0.0000         0.0000         0.0000        22.1107
    785.00        21.9675         0.0000         0.0000         0.0000        21.9675         0.0000         0.0000         0.0000        21.9675
    790.00        21.8262         0.0000         0.0000         0.0000        21.8262         0.0000         0.0000         0.0000        21.8262
    795.00        21.6866         0.0000         0.0000         0.0000        21.6866         0.0000         0.0000         0.0000        21.6866
    800.00        21.5489         0.0000         0.0000         0.0000        21.5489         0.0000         0.0000         0.0000        21.5489
    805.00        21.4129         0.0000         0.0000         0.0000        21.4129         0.0000         0.0000         0.0000        21.4129
    810.00        21.2786         0.0000         0.0000         0.0000        21.2786         0.0000         0.0000         0.0000        21.2786
    815.00        21.1460         0.0000         0.0000         0.0000        21.1460         0.0000         0.0000         0.0000        21.1460
    820.00        21.0151         0.0000         0.0000         0.0000        21.0151         0.0000         0.0000         0.0000        21.0151
    825.00        20.8858         0.0000         0.0000         0.0000        20.8858         0.0000         0.0000         0.0000        20.8858
    830.00        20.7581         0.0000         0.0000         0.0000        20.7581         0.0000         0.0000         0.0000        20.7581
    835.00        20.6319         0.0000         0.0000         0.0000        20.6319         0.0000         0.0000         0.0000        20.6319
    840.00        20.5073         0.0000         0.0000         0.0000        20.5073         0.0000         0.0000         0.0000        20.5073
    845.00        20.3842         0.0000         0.0000         0.0000        20.3842         0.0000         0.0000         0.0000        20.3842
    850.00        20.2626         0.0000         0.0000         0.0000        20.2626         0.0000         0.0000         0.0000        20.2626
    855.00        20.1424         0.0000         0.0000         0.0000        20.1424         0.0000         0.0000         0.0000        20.1424
    860.00        20.0236         0.0000         0.0000         0.0000        20.0236         0.0000         0.0000         0.0000        20.0236
    865.00        19.9063         0.0000         0.0000         0.0000        19.9063         0.0000         0.0000         0.0000        19.9063
    870.00        19.7903         0.0000         0.0000         0.0000        19.7903         0.0000         0.0000         0.0000        19.7903
    875.00        19.6757         0.0000         0.0000         0.0000        19.6757         0.0000         0.0000         0.0000        19.6757
    880.00        19.5624         0.0000         0.0000         0.0000        19.5624         0.0000         0.0000         0.0000        19.5624
    885.00        19.4504         0.0000         0.0000         0.0000        19.4504         0.0000         0.0000         0.0000        19.4504
    890.00        19.3397         0.0000         0.0000         0.0000        19.3397         0.0000         0.0000         0.0000        19.3397
    895.00        19.2303         0.0000         0.0000         0.0000        19.2303         0.0000         0.0000         0.0000        19.2303
    900.00        19.1221         0.0000         0.0000         0.0000        19.1221         0.0000         0.0000         0.0000        19.1221
    905.00        19.0151         0.0000         0.0000         0.0000        19.0151         0.0000         0.0000         0.0000        19.0151
    910.00        18.9093         0.0000         0.0000         0.0000        18.9093         0.0000         0.0000         0.0000        18.9093
    915.00        18.8047         0.0000         0.0000         0.0000        18.8047         0.0000         0.0000         0.0000        18.8047
    920.00        18.7012         0.0000         0.0000         0.0000        18.7012         0.0000         0.0000         0.0000        18.7012
    925.00        18.5989         0.0000         0.0000         0.0000        18.5989         0.0000         0.0000         0.0000        18.5989
    930.00        18.4977         0.0000         0.0000         0.0000        18.4977         0.0000         0.0000         0.0000        18.4977
    935.00        18.3976         0.0000         0.0000         0.0000        18.3976         0.0000         0.0000         0.0000        18.3976
    940.00        18.2986         0.0000         0.0000         0.0000        18.2986         0.0000         0.0000         0.0000        18.2986
    945.00        18.2007         0.0000         0.0000         0.0000        18.2007         0.0000         0.0000         0.0000        18.2007
    950.00        18.1038         0.0000         0.0000         0.0000        18.1038         0.0000         0.0000         0.0000        18.1038
    955.00        18.0079         0.0000         0.0000         0.0000        18.0079         0.0000         0.0000         0.0000        18.0079
    960.00        17.9130         0.0000         0.0000         0.0000        17.9130         0.0000         0.0000         0.0000        17.9130
    965.00        17.8192         0.0000         0.0000         0.0000        17.8192         0.0000         0.0000         0.0000        17.8192
    970.00        17.7263         0.0000         0.0000         0.0000        17.7263         0.0000         0.0000         0.0000        17.7263
    975.00        17.6344         0.0000         0.0000         0.0000        17.6344         0.0000         0.0000         0.0000        17.6344
    980.00        17.5435         0.0000         0.0000         0.0000        17.5435         0.0000         0.0000         0.0000        17.5435
    985.00        17.4535         0.0000         0.0000         0.0000        17.4535         0.0000         0.0000         0.0000        17.4535
    990.00        17.3644         0.0000         0.0000         0.0000        17.3644         0.0000         0.0000         0.0000        17.3644
    995.00        17.2762         0.0000         0.0000         0.0000        17.2762         0.0000         0.0000         0.0000        17.2762
   1000.00        17.1889         0.0000         0.0000         0.0000        17.1889         0.0000         0.0000         0.0000        17.1889
